[Device_info]
TestModelName=MOS_Id_Vg
NPLC=Medium
Channel_Type=N_Type
Hysteresis=False
[SMU_Channel]
Drain=SMU1
Gate=SMU2
Source=SMU3
Body1=Disable
Body2=Disable
[SMU_Setup]
GStart=0
GStop=5
GStep=0.01
DStart=50m
DStop=50m
DStep=0
Source_V=0
Body1_V=0
Body2_V=5
DIcom=100m
GIcom=100m
SIcom=100m
B1Icom=1m
B2Icom=1m
HoldTime=10m
DelayTime=10m
[GraphInfo]
GraphTitle=NMOS_Id-Vg_gm.2tsd
X_Title=Vgate (V)
X_Min=0
X_Max=5
X_Log=0
X_Abs=0
Y_Title=Idrain (A)
Y_Min=-5E-05
Y_Max=0.0003
Y_Log=0
Y_Abs=0
Y2_Title=gm
Y2_Min=-2E-05
Y2_Max=0.00012
Y2_Log=0
Y2_Abs=0
TestCount=3
[Legends]
Visible=0
Position=Right
1=1 : Idrain@Vdrain=0.05V
2=2 : gm@Vdrain=0.05V
3=3 : Idrain@Vdrain=0.05V
4=4 : gm@Vdrain=0.05V
5=5 : Idrain@Vdrain=0.05V
6=6 : gm@Vdrain=0.05V
[TestInfo]
Test Name,NMOS_Id-Vg_gm.2tsd
Test Date,2021-05-20 17:06:25
Test Time,1.143s
Mode,Sweep Measure
Speed,Medium
Hold Time,0.01s
Delay Time,0.01s
Instrument Channel,SMU2,SMU1,SMU3
Force Channel Name,Vgate,Vdrain,Vsource
Force Mode,Voltage Sweep,Voltage Sweep,Voltage Bias
Sweep Mode,VAR1,VAR2,Constant
Sweep Direction,N/A,N/A,N/A
Start/Level,0,0.05,0
Stop/Offset,5,0.05,N/A
Step/Ratio,0.5,0,N/A
Number of Points,11,1,N/A
Compliance,0.1,0.1,0.1
Measure Channel Name,N/A,Idrain,N/A
Measure Mode,N/A,Current Measured,N/A
Measure Range,N/A,Limited Auto = 1nA,N/A
Frequency,N/A,N/A,N/A
AC Level,N/A,N/A,N/A
[TestData]
No,Index,Vdrain(V),GraphX:Vgate(V),GraphY:Idrain(A),GraphY2:gm
  1,  1,0.05,     0.000,  4.154E-013, -5.923E-012
  1,  2,0.05,     0.500, -2.546E-012,  2.412E-011
  1,  3,0.05,     1.000,  2.454E-011,  8.076E-008
  1,  4,0.05,     1.500,  8.075E-008,  2.103E-005
  1,  5,0.05,     2.000,  2.103E-005,  7.013E-005
  1,  6,0.05,     2.500,  7.021E-005,  9.630E-005
  1,  7,0.05,     3.000,  1.173E-004,  9.025E-005
  1,  8,0.05,     3.500,  1.605E-004,  8.315E-005
  1,  9,0.05,     4.000,  2.005E-004,  7.760E-005
  1, 10,0.05,     4.500,  2.381E-004,  7.310E-005
  1, 11,0.05,     5.000,  2.736E-004,  7.104E-005
[TestInfo]
Test Name,NMOS_Id-Vg_gm.2tsd
Test Date,2021-05-20 17:06:37
Test Time,4.422s
Mode,Sweep Measure
Speed,Medium
Hold Time,0.01s
Delay Time,0.01s
Instrument Channel,SMU2,SMU1,SMU3
Force Channel Name,Vgate,Vdrain,Vsource
Force Mode,Voltage Sweep,Voltage Sweep,Voltage Bias
Sweep Mode,VAR1,VAR2,Constant
Sweep Direction,N/A,N/A,N/A
Start/Level,0,0.05,0
Stop/Offset,5,0.05,N/A
Step/Ratio,0.05,0,N/A
Number of Points,101,1,N/A
Compliance,0.1,0.1,0.1
Measure Channel Name,N/A,Idrain,N/A
Measure Mode,N/A,Current Measured,N/A
Measure Range,N/A,Limited Auto = 1nA,N/A
Frequency,N/A,N/A,N/A
AC Level,N/A,N/A,N/A
[TestData]
No,Index,Vdrain(V),GraphX:Vgate(V),GraphY:Idrain(A),GraphY2:gm
  2,  1,0.05,     0.000,  3.059E-013, -9.767E-012
  2,  2,0.05,     0.050, -1.824E-013, -6.315E-012
  2,  3,0.05,     0.100, -3.255E-013, -1.936E-012
  2,  4,0.05,     0.150, -3.761E-013, -7.578E-013
  2,  5,0.05,     0.200, -4.013E-013, -9.261E-013
  2,  6,0.05,     0.250, -4.687E-013, -1.684E-013
  2,  7,0.05,     0.300, -4.182E-013,  4.210E-013
  2,  8,0.05,     0.350, -4.266E-013, -1.684E-013
  2,  9,0.05,     0.400, -4.350E-013, -8.419E-014
  2, 10,0.05,     0.450, -4.350E-013, -8.420E-014
  2, 11,0.05,     0.500, -4.434E-013, -2.526E-013
  2, 12,0.05,     0.550, -4.603E-013, -2.526E-013
  2, 13,0.05,     0.600, -4.687E-013,  8.420E-013
  2, 14,0.05,     0.650, -3.761E-013,  2.610E-012
  2, 15,0.05,     0.700, -2.077E-013,  4.883E-012
  2, 16,0.05,     0.750,  1.123E-013,  1.069E-011
  2, 17,0.05,     0.800,  8.616E-013,  2.290E-011
  2, 18,0.05,     0.850,  2.402E-012,  4.681E-011
  2, 19,0.05,     0.900,  5.543E-012,  9.767E-011
  2, 20,0.05,     0.950,  1.217E-011,  2.088E-010
  2, 21,0.05,     1.000,  2.642E-011,  4.489E-010
  2, 22,0.05,     1.050,  5.706E-011,  9.725E-010
  2, 23,0.05,     1.100,  1.237E-010,  2.135E-009
  2, 24,0.05,     1.150,  2.706E-010,  4.710E-009
  2, 25,0.05,     1.200,  5.947E-010,  1.059E-008
  2, 26,0.05,     1.250,  1.329E-009,  2.397E-008
  2, 27,0.05,     1.300,  2.991E-009,  5.410E-008
  2, 28,0.05,     1.350,  6.739E-009,  1.244E-007
  2, 29,0.05,     1.400,  1.543E-008,  2.848E-007
  2, 30,0.05,     1.450,  3.522E-008,  6.539E-007
  2, 31,0.05,     1.500,  8.082E-008,  1.497E-006
  2, 32,0.05,     1.550,  1.849E-007,  3.327E-006
  2, 33,0.05,     1.600,  4.135E-007,  7.073E-006
  2, 34,0.05,     1.650,  8.922E-007,  1.388E-005
  2, 35,0.05,     1.700,  1.802E-006,  2.449E-005
  2, 36,0.05,     1.750,  3.341E-006,  3.843E-005
  2, 37,0.05,     1.800,  5.645E-006,  5.341E-005
  2, 38,0.05,     1.850,  8.683E-006,  6.742E-005
  2, 39,0.05,     1.900,  1.239E-005,  7.865E-005
  2, 40,0.05,     1.950,  1.655E-005,  8.639E-005
  2, 41,0.05,     2.000,  2.103E-005,  9.192E-005
  2, 42,0.05,     2.050,  2.574E-005,  9.564E-005
  2, 43,0.05,     2.100,  3.059E-005,  9.766E-005
  2, 44,0.05,     2.150,  3.551E-005,  9.894E-005
  2, 45,0.05,     2.200,  4.048E-005,  9.961E-005
  2, 46,0.05,     2.250,  4.547E-005,  9.975E-005
  2, 47,0.05,     2.300,  5.046E-005,  9.975E-005
  2, 48,0.05,     2.350,  5.544E-005,  9.919E-005
  2, 49,0.05,     2.400,  6.038E-005,  9.861E-005
  2, 50,0.05,     2.450,  6.530E-005,  9.818E-005
  2, 51,0.05,     2.500,  7.020E-005,  9.740E-005
  2, 52,0.05,     2.550,  7.504E-005,  9.667E-005
  2, 53,0.05,     2.600,  7.986E-005,  9.577E-005
  2, 54,0.05,     2.650,  8.462E-005,  9.496E-005
  2, 55,0.05,     2.700,  8.936E-005,  9.437E-005
  2, 56,0.05,     2.750,  9.406E-005,  9.682E-005
  2, 57,0.05,     2.800,  9.904E-005,  9.597E-005
  2, 58,0.05,     2.850,  1.037E-004,  9.197E-005
  2, 59,0.05,     2.900,  1.082E-004,  9.120E-005
  2, 60,0.05,     2.950,  1.128E-004,  9.051E-005
  2, 61,0.05,     3.000,  1.173E-004,  8.991E-005
  2, 62,0.05,     3.050,  1.218E-004,  8.931E-005
  2, 63,0.05,     3.100,  1.262E-004,  8.854E-005
  2, 64,0.05,     3.150,  1.306E-004,  8.752E-005
  2, 65,0.05,     3.200,  1.350E-004,  8.683E-005
  2, 66,0.05,     3.250,  1.393E-004,  8.632E-005
  2, 67,0.05,     3.300,  1.436E-004,  8.555E-005
  2, 68,0.05,     3.350,  1.479E-004,  8.487E-005
  2, 69,0.05,     3.400,  1.521E-004,  8.410E-005
  2, 70,0.05,     3.450,  1.563E-004,  8.358E-005
  2, 71,0.05,     3.500,  1.604E-004,  8.316E-005
  2, 72,0.05,     3.550,  1.646E-004,  8.221E-005
  2, 73,0.05,     3.600,  1.687E-004,  8.187E-005
  2, 74,0.05,     3.650,  1.728E-004,  8.153E-005
  2, 75,0.05,     3.700,  1.768E-004,  8.059E-005
  2, 76,0.05,     3.750,  1.808E-004,  8.008E-005
  2, 77,0.05,     3.800,  1.848E-004,  7.948E-005
  2, 78,0.05,     3.850,  1.888E-004,  7.862E-005
  2, 79,0.05,     3.900,  1.927E-004,  7.854E-005
  2, 80,0.05,     3.950,  1.966E-004,  7.811E-005
  2, 81,0.05,     4.000,  2.005E-004,  7.759E-005
  2, 82,0.05,     4.050,  2.044E-004,  7.725E-005
  2, 83,0.05,     4.100,  2.082E-004,  7.640E-005
  2, 84,0.05,     4.150,  2.120E-004,  7.588E-005
  2, 85,0.05,     4.200,  2.158E-004,  7.554E-005
  2, 86,0.05,     4.250,  2.196E-004,  7.537E-005
  2, 87,0.05,     4.300,  2.234E-004,  7.477E-005
  2, 88,0.05,     4.350,  2.271E-004,  7.383E-005
  2, 89,0.05,     4.400,  2.307E-004,  7.340E-005
  2, 90,0.05,     4.450,  2.344E-004,  7.323E-005
  2, 91,0.05,     4.500,  2.381E-004,  7.340E-005
  2, 92,0.05,     4.550,  2.417E-004,  7.272E-005
  2, 93,0.05,     4.600,  2.453E-004,  7.195E-005
  2, 94,0.05,     4.650,  2.489E-004,  7.186E-005
  2, 95,0.05,     4.700,  2.525E-004,  7.118E-005
  2, 96,0.05,     4.750,  2.561E-004,  7.084E-005
  2, 97,0.05,     4.800,  2.596E-004,  7.075E-005
  2, 98,0.05,     4.850,  2.631E-004,  7.007E-005
  2, 99,0.05,     4.900,  2.666E-004,  6.955E-005
  2,100,0.05,     4.950,  2.701E-004,  6.947E-005
  2,101,0.05,     5.000,  2.736E-004,  6.947E-005
[TestInfo]
Test Name,NMOS_Id-Vg_gm.2tsd
Test Date,2021-05-20 17:06:54
Test Time,26.345s
Mode,Sweep Measure
Speed,Medium
Hold Time,0.01s
Delay Time,0.01s
Instrument Channel,SMU2,SMU1,SMU3
Force Channel Name,Vgate,Vdrain,Vsource
Force Mode,Voltage Sweep,Voltage Sweep,Voltage Bias
Sweep Mode,VAR1,VAR2,Constant
Sweep Direction,N/A,N/A,N/A
Start/Level,0,0.05,0
Stop/Offset,5,0.05,N/A
Step/Ratio,0.01,0,N/A
Number of Points,501,1,N/A
Compliance,0.1,0.1,0.1
Measure Channel Name,N/A,Idrain,N/A
Measure Mode,N/A,Current Measured,N/A
Measure Range,N/A,Limited Auto = 1nA,N/A
Frequency,N/A,N/A,N/A
AC Level,N/A,N/A,N/A
[TestData]
No,Index,Vdrain(V),GraphX:Vgate(V),GraphY:Idrain(A),GraphY2:gm
  3,  1,0.05,     0.000,  3.143E-013, -3.284E-011
  3,  2,0.05,     0.010, -1.403E-014, -2.231E-011
  3,  3,0.05,     0.020, -1.319E-013, -6.736E-012
  3,  4,0.05,     0.030, -1.487E-013, -1.263E-012
  3,  5,0.05,     0.040, -1.572E-013,  8.420E-013
  3,  6,0.05,     0.050, -1.319E-013,  1.263E-012
  3,  7,0.05,     0.060, -1.319E-013,  8.419E-013
  3,  8,0.05,     0.070, -1.151E-013, -1.263E-012
  3,  9,0.05,     0.080, -1.572E-013, -5.894E-012
  3, 10,0.05,     0.090, -2.329E-013, -2.105E-012
  3, 11,0.05,     0.100, -1.993E-013,  3.789E-012
  3, 12,0.05,     0.110, -1.572E-013,  2.947E-012
  3, 13,0.05,     0.120, -1.403E-013, -3.789E-012
  3, 14,0.05,     0.130, -2.329E-013, -3.789E-012
  3, 15,0.05,     0.140, -2.161E-013,  2.526E-012
  3, 16,0.05,     0.150, -1.824E-013, -1.263E-012
  3, 17,0.05,     0.160, -2.414E-013, -2.947E-012
  3, 18,0.05,     0.170, -2.414E-013,  0.000E+000
  3, 19,0.05,     0.180, -2.414E-013,  4.631E-012
  3, 20,0.05,     0.190, -1.487E-013,  2.526E-012
  3, 21,0.05,     0.200, -1.908E-013, -2.526E-012
  3, 22,0.05,     0.210, -1.993E-013, -2.105E-012
  3, 23,0.05,     0.220, -2.329E-013, -8.420E-013
  3, 24,0.05,     0.230, -2.161E-013, -1.263E-012
  3, 25,0.05,     0.240, -2.582E-013,  4.210E-013
  3, 26,0.05,     0.250, -2.077E-013,  8.420E-013
  3, 27,0.05,     0.260, -2.414E-013, -2.947E-012
  3, 28,0.05,     0.270, -2.666E-013,  4.210E-013
  3, 29,0.05,     0.280, -2.329E-013,  8.419E-013
  3, 30,0.05,     0.290, -2.498E-013, -1.684E-012
  3, 31,0.05,     0.300, -2.666E-013,  0.000E+000
  3, 32,0.05,     0.310, -2.498E-013,  8.419E-013
  3, 33,0.05,     0.320, -2.498E-013,  4.210E-013
  3, 34,0.05,     0.330, -2.414E-013, -4.210E-013
  3, 35,0.05,     0.340, -2.582E-013,  4.210E-013
  3, 36,0.05,     0.350, -2.329E-013,  2.105E-012
  3, 37,0.05,     0.360, -2.161E-013, -1.263E-012
  3, 38,0.05,     0.370, -2.582E-013,  4.210E-013
  3, 39,0.05,     0.380, -2.077E-013, -8.420E-013
  3, 40,0.05,     0.390, -2.750E-013, -8.420E-013
  3, 41,0.05,     0.400, -2.245E-013, -1.263E-012
  3, 42,0.05,     0.410, -3.003E-013, -8.419E-013
  3, 43,0.05,     0.420, -2.414E-013,  5.052E-012
  3, 44,0.05,     0.430, -1.993E-013, -8.420E-013
  3, 45,0.05,     0.440, -2.582E-013, -3.368E-012
  3, 46,0.05,     0.450, -2.666E-013, -1.263E-012
  3, 47,0.05,     0.460, -2.835E-013,  0.000E+000
  3, 48,0.05,     0.470, -2.666E-013,  3.368E-012
  3, 49,0.05,     0.480, -2.161E-013,  2.947E-012
  3, 50,0.05,     0.490, -2.077E-013, -8.419E-013
  3, 51,0.05,     0.500, -2.329E-013, -4.210E-013
  3, 52,0.05,     0.510, -2.161E-013,  0.000E+000
  3, 53,0.05,     0.520, -2.329E-013,  4.210E-013
  3, 54,0.05,     0.530, -2.077E-013,  2.105E-012
  3, 55,0.05,     0.540, -1.908E-013,  4.210E-013
  3, 56,0.05,     0.550, -1.993E-013,  8.420E-013
  3, 57,0.05,     0.560, -1.740E-013,  4.210E-013
  3, 58,0.05,     0.570, -1.908E-013,  1.263E-012
  3, 59,0.05,     0.580, -1.487E-013,  1.684E-012
  3, 60,0.05,     0.590, -1.572E-013, -2.526E-012
  3, 61,0.05,     0.600, -1.993E-013,  4.210E-013
  3, 62,0.05,     0.610, -1.487E-013,  2.105E-012
  3, 63,0.05,     0.620, -1.572E-013,  2.947E-012
  3, 64,0.05,     0.630, -8.980E-014,  2.947E-012
  3, 65,0.05,     0.640, -9.822E-014,  0.000E+000
  3, 66,0.05,     0.650, -8.980E-014,  1.684E-012
  3, 67,0.05,     0.660, -6.454E-014,  4.631E-012
  3, 68,0.05,     0.670,  2.812E-015,  5.052E-012
  3, 69,0.05,     0.680,  3.649E-014, -1.684E-012
  3, 70,0.05,     0.690, -3.087E-014,  6.315E-012
  3, 71,0.05,     0.700,  1.628E-013,  1.010E-011
  3, 72,0.05,     0.710,  1.712E-013,  3.368E-012
  3, 73,0.05,     0.720,  2.301E-013,  6.736E-012
  3, 74,0.05,     0.730,  3.059E-013,  2.947E-012
  3, 75,0.05,     0.740,  2.891E-013,  7.578E-012
  3, 76,0.05,     0.750,  4.575E-013,  1.347E-011
  3, 77,0.05,     0.760,  5.585E-013,  1.305E-011
  3, 78,0.05,     0.770,  7.185E-013,  8.420E-012
  3, 79,0.05,     0.780,  7.269E-013,  1.516E-011
  3, 80,0.05,     0.790,  1.022E-012,  2.736E-011
  3, 81,0.05,     0.800,  1.274E-012,  2.147E-011
  3, 82,0.05,     0.810,  1.451E-012,  1.936E-011
  3, 83,0.05,     0.820,  1.661E-012,  2.778E-011
  3, 84,0.05,     0.830,  2.007E-012,  3.073E-011
  3, 85,0.05,     0.840,  2.276E-012,  3.536E-011
  3, 86,0.05,     0.850,  2.714E-012,  4.547E-011
  3, 87,0.05,     0.860,  3.185E-012,  5.052E-011
  3, 88,0.05,     0.870,  3.724E-012,  5.641E-011
  3, 89,0.05,     0.880,  4.314E-012,  6.820E-011
  3, 90,0.05,     0.890,  5.088E-012,  8.209E-011
  3, 91,0.05,     0.900,  5.955E-012,  8.798E-011
  3, 92,0.05,     0.910,  6.848E-012,  9.935E-011
  3, 93,0.05,     0.920,  7.942E-012,  1.242E-010
  3, 94,0.05,     0.930,  9.332E-012,  1.398E-010
  3, 95,0.05,     0.940,  1.074E-011,  1.621E-010
  3, 96,0.05,     0.950,  1.257E-011,  1.958E-010
  3, 97,0.05,     0.960,  1.465E-011,  2.206E-010
  3, 98,0.05,     0.970,  1.698E-011,  2.623E-010
  3, 99,0.05,     0.980,  1.990E-011,  3.069E-010
  3,100,0.05,     0.990,  2.312E-011,  3.494E-010
  3,101,0.05,     1.000,  2.689E-011,  4.075E-010
  3,102,0.05,     1.010,  3.127E-011,  4.753E-010
  3,103,0.05,     1.020,  3.639E-011,  5.591E-010
  3,104,0.05,     1.030,  4.245E-011,  6.483E-010
  3,105,0.05,     1.040,  4.936E-011,  7.582E-010
  3,106,0.05,     1.050,  5.762E-011,  8.971E-010
  3,107,0.05,     1.060,  6.730E-011,  1.041E-009
  3,108,0.05,     1.070,  7.845E-011,  1.206E-009
  3,109,0.05,     1.080,  9.142E-011,  1.415E-009
  3,110,0.05,     1.090,  1.068E-010,  1.660E-009
  3,111,0.05,     1.100,  1.246E-010,  1.937E-009
  3,112,0.05,     1.110,  1.455E-010,  2.269E-009
  3,113,0.05,     1.120,  1.700E-010,  2.655E-009
  3,114,0.05,     1.130,  1.986E-010,  3.143E-009
  3,115,0.05,     1.140,  2.328E-010,  3.676E-009
  3,116,0.05,     1.150,  2.721E-010,  4.268E-009
  3,117,0.05,     1.160,  3.182E-010,  5.013E-009
  3,118,0.05,     1.170,  3.724E-010,  5.894E-009
  3,119,0.05,     1.180,  4.361E-010,  6.909E-009
  3,120,0.05,     1.190,  5.106E-010,  8.088E-009
  3,121,0.05,     1.200,  5.978E-010,  9.522E-009
  3,122,0.05,     1.210,  7.010E-010,  1.130E-008
  3,123,0.05,     1.220,  8.238E-010,  1.326E-008
  3,124,0.05,     1.230,  9.661E-010,  1.587E-008
  3,125,0.05,     1.240,  1.141E-009,  1.862E-008
  3,126,0.05,     1.250,  1.339E-009,  2.138E-008
  3,127,0.05,     1.260,  1.569E-009,  2.534E-008
  3,128,0.05,     1.270,  1.845E-009,  2.997E-008
  3,129,0.05,     1.280,  2.168E-009,  3.508E-008
  3,130,0.05,     1.290,  2.547E-009,  4.176E-008
  3,131,0.05,     1.300,  3.003E-009,  4.929E-008
  3,132,0.05,     1.310,  3.533E-009,  5.743E-008
  3,133,0.05,     1.320,  4.152E-009,  6.772E-008
  3,134,0.05,     1.330,  4.887E-009,  7.963E-008
  3,135,0.05,     1.340,  5.745E-009,  9.411E-008
  3,136,0.05,     1.350,  6.769E-009,  1.114E-007
  3,137,0.05,     1.360,  7.974E-009,  1.311E-007
  3,138,0.05,     1.370,  9.391E-009,  1.572E-007
  3,139,0.05,     1.380,  1.112E-008,  1.855E-007
  3,140,0.05,     1.390,  1.310E-008,  2.167E-007
  3,141,0.05,     1.400,  1.545E-008,  2.558E-007
  3,142,0.05,     1.410,  1.822E-008,  3.013E-007
  3,143,0.05,     1.420,  2.148E-008,  3.558E-007
  3,144,0.05,     1.430,  2.533E-008,  4.203E-007
  3,145,0.05,     1.440,  2.988E-008,  4.967E-007
  3,146,0.05,     1.450,  3.527E-008,  5.927E-007
  3,147,0.05,     1.460,  4.174E-008,  6.992E-007
  3,148,0.05,     1.470,  4.925E-008,  8.182E-007
  3,149,0.05,     1.480,  5.810E-008,  9.646E-007
  3,150,0.05,     1.490,  6.854E-008,  1.139E-006
  3,151,0.05,     1.500,  8.087E-008,  1.342E-006
  3,152,0.05,     1.510,  9.538E-008,  1.595E-006
  3,153,0.05,     1.520,  1.128E-007,  1.877E-006
  3,154,0.05,     1.530,  1.329E-007,  2.218E-006
  3,155,0.05,     1.540,  1.571E-007,  2.602E-006
  3,156,0.05,     1.550,  1.849E-007,  3.026E-006
  3,157,0.05,     1.560,  2.177E-007,  3.554E-006
  3,158,0.05,     1.570,  2.560E-007,  4.153E-006
  3,159,0.05,     1.580,  3.007E-007,  4.845E-006
  3,160,0.05,     1.590,  3.529E-007,  5.644E-006
  3,161,0.05,     1.600,  4.136E-007,  6.543E-006
  3,162,0.05,     1.610,  4.838E-007,  7.657E-006
  3,163,0.05,     1.620,  5.667E-007,  8.848E-006
  3,164,0.05,     1.630,  6.607E-007,  1.010E-005
  3,165,0.05,     1.640,  7.687E-007,  1.157E-005
  3,166,0.05,     1.650,  8.921E-007,  1.307E-005
  3,167,0.05,     1.660,  1.030E-006,  1.486E-005
  3,168,0.05,     1.670,  1.189E-006,  1.693E-005
  3,169,0.05,     1.680,  1.369E-006,  1.910E-005
  3,170,0.05,     1.690,  1.571E-006,  2.163E-005
  3,171,0.05,     1.700,  1.801E-006,  2.411E-005
  3,172,0.05,     1.710,  2.054E-006,  2.655E-005
  3,173,0.05,     1.720,  2.332E-006,  2.931E-005
  3,174,0.05,     1.730,  2.640E-006,  3.213E-005
  3,175,0.05,     1.740,  2.975E-006,  3.505E-005
  3,176,0.05,     1.750,  3.341E-006,  3.816E-005
  3,177,0.05,     1.760,  3.738E-006,  4.124E-005
  3,178,0.05,     1.770,  4.165E-006,  4.480E-005
  3,179,0.05,     1.780,  4.634E-006,  4.788E-005
  3,180,0.05,     1.790,  5.123E-006,  5.049E-005
  3,181,0.05,     1.800,  5.644E-006,  5.351E-005
  3,182,0.05,     1.810,  6.193E-006,  5.655E-005
  3,183,0.05,     1.820,  6.775E-006,  5.948E-005
  3,184,0.05,     1.830,  7.383E-006,  6.216E-005
  3,185,0.05,     1.840,  8.018E-006,  6.491E-005
  3,186,0.05,     1.850,  8.681E-006,  6.819E-005
  3,187,0.05,     1.860,  9.382E-006,  7.160E-005
  3,188,0.05,     1.870,  1.011E-005,  7.309E-005
  3,189,0.05,     1.880,  1.084E-005,  7.454E-005
  3,190,0.05,     1.890,  1.160E-005,  7.709E-005
  3,191,0.05,     1.900,  1.239E-005,  7.882E-005
  3,192,0.05,     1.910,  1.318E-005,  8.048E-005
  3,193,0.05,     1.920,  1.399E-005,  8.226E-005
  3,194,0.05,     1.930,  1.483E-005,  8.454E-005
  3,195,0.05,     1.940,  1.569E-005,  8.615E-005
  3,196,0.05,     1.950,  1.655E-005,  8.679E-005
  3,197,0.05,     1.960,  1.742E-005,  8.793E-005
  3,198,0.05,     1.970,  1.831E-005,  8.912E-005
  3,199,0.05,     1.980,  1.920E-005,  9.027E-005
  3,200,0.05,     1.990,  2.011E-005,  9.090E-005
  3,201,0.05,     2.000,  2.102E-005,  9.179E-005
  3,202,0.05,     2.010,  2.195E-005,  9.395E-005
  3,203,0.05,     2.020,  2.290E-005,  9.455E-005
  3,204,0.05,     2.030,  2.384E-005,  9.438E-005
  3,205,0.05,     2.040,  2.479E-005,  9.514E-005
  3,206,0.05,     2.050,  2.574E-005,  9.548E-005
  3,207,0.05,     2.060,  2.670E-005,  9.607E-005
  3,208,0.05,     2.070,  2.766E-005,  9.671E-005
  3,209,0.05,     2.080,  2.863E-005,  9.700E-005
  3,210,0.05,     2.090,  2.960E-005,  9.832E-005
  3,211,0.05,     2.100,  3.060E-005,  9.849E-005
  3,212,0.05,     2.110,  3.157E-005,  9.777E-005
  3,213,0.05,     2.120,  3.255E-005,  9.819E-005
  3,214,0.05,     2.130,  3.354E-005,  9.836E-005
  3,215,0.05,     2.140,  3.452E-005,  9.874E-005
  3,216,0.05,     2.150,  3.551E-005,  9.895E-005
  3,217,0.05,     2.160,  3.650E-005,  9.895E-005
  3,218,0.05,     2.170,  3.749E-005,  1.003E-004
  3,219,0.05,     2.180,  3.851E-005,  1.003E-004
  3,220,0.05,     2.190,  3.950E-005,  9.917E-005
  3,221,0.05,     2.200,  4.049E-005,  9.917E-005
  3,222,0.05,     2.210,  4.148E-005,  9.933E-005
  3,223,0.05,     2.220,  4.248E-005,  9.976E-005
  3,224,0.05,     2.230,  4.348E-005,  9.980E-005
  3,225,0.05,     2.240,  4.447E-005,  9.963E-005
  3,226,0.05,     2.250,  4.547E-005,  1.005E-004
  3,227,0.05,     2.260,  4.648E-005,  1.001E-004
  3,228,0.05,     2.270,  4.747E-005,  9.946E-005
  3,229,0.05,     2.280,  4.847E-005,  9.972E-005
  3,230,0.05,     2.290,  4.946E-005,  9.955E-005
  3,231,0.05,     2.300,  5.046E-005,  9.942E-005
  3,232,0.05,     2.310,  5.145E-005,  9.929E-005
